lambda_air(A)  lambda_vac(A)  FWHM(A)  Flux(10^-16^erg/s/cm2/{AA})
  3142.6768    3143.5870  0.0730    1.5474
  3143.3757    3144.2860  0.0637    1.0259
  3143.6824    3144.5930  0.1236    1.0973
  3144.0857    3144.9960  0.0954    1.9536
  3145.5142    3146.4250  0.0835    2.2297
  3145.9248    3146.8360  0.0654    1.5056
  3147.2148    3148.1260  0.0414    0.8647
  3147.7874    3148.6990  0.0909    1.7371
  3147.9854    3148.8970  0.0659    0.9111
  3148.1995    3149.1110  0.0656    1.5384
  3150.4873    3151.4000  0.1228    1.3100
  3150.6965    3151.6090  0.0717    0.8876
  3150.9114    3151.8240  0.0818    1.5038
  3153.6616    3154.5750  0.1632    0.7770
  3153.8359    3154.7490  0.0598    0.8071
  3154.0789    3154.9920  0.0875    1.2577
  3164.0518    3164.9680  0.0450    1.0627
  3169.6096    3170.5270  0.0923    0.8234
  3171.6594    3172.5770  0.0898    0.7946
  3209.4827    3210.4100  0.0819    1.0830
  3209.7666    3210.6940  0.2848    0.9140
  3210.7603    3211.6880  0.0604    0.8823
  3211.7520    3212.6800  0.1043    1.2754
  3211.9795    3212.9070  0.0822    0.7092
  3212.1833    3213.1110  0.0889    1.3915
  3213.6025    3214.5310  0.0809    1.3191
  3213.8083    3214.7370  0.0684    0.7631
  3214.0347    3214.9630  0.0739    1.1345
  3215.8848    3216.8140  0.0901    1.0595
  3216.0754    3217.0040  0.0856    0.6274
  3216.3118    3217.2410  0.0831    1.1190
  3218.5747    3219.5040  0.0820    0.7330
  3218.6396    3219.5690  0.0758    0.5710
  3218.7898    3219.7190  0.0667    0.5156
  3219.0349    3219.9650  0.0747    1.1194
  3221.7217    3222.6520  0.0648    0.7810
  3221.8943    3222.8250  0.2224    0.4868
  3222.2017    3223.1320  0.1282    0.7080
  3229.8706    3230.8030  0.0638    0.6844
  3236.3047    3237.2390  0.0613    0.4956
  3236.5024    3237.4360  0.0617    0.5435
  3238.8171    3239.7520  0.0850    0.4280
  3258.5100    3259.4500  0.1086    0.4183
  3258.7251    3259.6650  0.0663    0.4301
  3258.8679    3259.8080  0.0788    0.6943
  3260.3518    3261.2920  0.0506    0.4108
  3260.5237    3261.4640  0.0861    0.6425
  3260.9724    3261.9130  0.0660    0.3609
  3262.2676    3263.2080  0.0645    0.7400
  3262.4739    3263.4150  0.0604    0.5582
  3262.6953    3263.6360  0.1066    0.8325
  3264.9661    3265.9070  0.0803    0.6853
  3265.1616    3266.1030  0.1072    0.5978
  3265.3821    3266.3240  0.0627    0.8601
  3267.0652    3268.0070  0.0867    0.4853
  3268.6230    3269.5650  0.0726    1.0508
  3271.8921    3272.8350  0.2694    0.7337
  3276.1152    3277.0590  0.0825    0.8237
  3276.3347    3277.2790  0.0825    0.8605
  3280.8835    3281.8290  0.0572    0.4580
  3281.0012    3281.9470  0.0480    0.2921
  3281.1355    3282.0810  0.1279    0.5400
  3281.3984    3282.3440  0.2275    0.4233
  3281.5955    3282.5410  0.1052    0.3313
  3281.7988    3282.7440  0.0610    0.2585
  3285.7478    3286.6940  0.0865    0.6926
  3286.7048    3287.6520  0.1076    0.6203
  3286.9451    3287.8920  0.0674    0.3322
  3287.1746    3288.1220  0.0598    0.5324
  3288.5786    3289.5260  0.0784    0.5357
  3288.8167    3289.7640  0.0774    0.3730
  3289.0286    3289.9760  0.0648    0.5543
  3290.8779    3291.8260  0.0665    0.5813
  3292.8406    3293.7890  0.0332    0.5525
  3293.1267    3294.0750  0.0591    0.7015
  3295.2378    3296.1870  0.1207    0.9348
  3295.4561    3296.4050  0.0852    0.6977
  3295.6560    3296.6050  0.0892    0.9480
  3297.1917    3298.1410  0.0945    1.2762
  3297.6321    3298.5820  0.1131    1.0439
  3299.6143    3300.5640  0.0970    0.9744
  3300.0620    3301.0120  0.0907    1.0439
  3302.5200    3303.4710  0.2969    0.6458
  3302.7017    3303.6530  0.0848    0.5814
  3302.9604    3303.9110  0.0736    0.9886
  3305.8552    3306.8070  0.0922    0.7340
  3306.0774    3307.0290  0.0678    0.5801
  3306.3438    3307.2960  0.0775    0.8402
  3309.6838    3310.6360  0.0670    0.5925
  3309.9175    3310.8700  0.0732    0.4508
  3310.1626    3311.1150  0.1026    0.8338
  3310.4207    3311.3740  0.0874    0.4837
  3310.8594    3311.8120  0.0572    0.4797
  3311.4404    3312.3940  -0.0613    0.3665
  3313.0757    3314.0290  0.0716    0.3790
  3313.2856    3314.2390  0.1830    0.4102
  3314.0017    3314.9550  0.0859    0.4870
  3314.1172    3315.0710  0.0474    0.6938
  3319.0864    3320.0410  0.0941    0.7867
  3323.8484    3324.8050  0.0935    0.7518
  3326.5271    3327.4840  0.0855    0.5139
  3328.1362    3329.0940  0.1048    0.5011
  3328.8113    3329.7690  0.0499    0.3337
  3330.1509    3331.1090  0.0700    0.4650
  3330.6111    3331.5690  0.1260    0.4858
  3333.1541    3334.1130  0.0840    0.3853
  3334.8154    3335.7740  0.0859    0.3412
  3335.8889    3336.8480  0.0702    0.4166
  3368.4978    3369.4650  0.0737    0.8012
  3368.8960    3369.8640  0.1257    0.7669
  3369.0613    3370.0290  0.0658    0.8982
  3369.4644    3370.4320  0.1153    0.5860
  3370.1130    3371.0810  0.1122    0.8680
  3370.3545    3371.3230  0.0608    0.6006
  3370.5674    3371.5360  0.0795    1.0095
  3372.0657    3373.0340  0.0842    1.2174
  3372.3354    3373.3040  0.0973    0.6600
  3372.5413    3373.5100  0.0875    0.8869
  3373.1917    3374.1610  0.1062    0.4327
  3373.5867    3374.5560  0.0606    0.5724
  3374.5071    3375.4760  0.1046    1.1271
  3374.7510    3375.7200  0.0583    0.4792
  3374.9651    3375.9340  0.1024    0.8880
  3375.9441    3376.9140  0.1148    0.5241
  3376.3928    3377.3620  0.1370    0.5533
  3377.4089    3378.3790  0.1163    0.5915
  3377.4651    3378.4350  0.0976    0.5806
  3377.6150    3378.5850  0.0809    0.6214
  3377.8953    3378.8650  0.1094    0.7752
  3377.9968    3378.9670  0.0476    0.5720
  3379.7537    3380.7240  0.0787    0.4658
  3380.7524    3381.7230  0.0302    0.4558
  3380.8564    3381.8270  0.0903    0.4505
  3380.9919    3381.9630  0.0741    0.3699
  3381.2632    3382.2340  0.1093    0.7000
  3381.7021    3382.6730  0.0804    0.5036
  3381.8508    3382.8220  0.0625    0.3932
  3383.7666    3384.7380  0.0754    0.3813
  3384.5950    3385.5670  0.0911    0.3851
  3384.7417    3385.7140  0.0050    0.4691
  3385.1211    3386.0930  0.0932    0.5824
  3385.4639    3386.4360  0.1190    0.3760
  3420.3298    3421.3110  0.0925    0.4978
  3420.8052    3421.7860  0.0764    0.6152
  3423.2046    3424.1860  0.0692    0.5548
  3423.6921    3424.6740  0.0720    0.5717
  3430.6172    3431.6010  0.0954    0.4207
  3431.1060    3432.0900  0.0811    0.4375
  3434.5935    3435.5780  0.0803    0.3629
  3435.3235    3436.3080  0.0841    0.4549
  3435.6616    3436.6460  0.3231    0.4337
  3449.8513    3450.8400  0.0778    0.4831
  3450.6670    3451.6560  0.0548    0.4290
  3451.2871    3452.2760  0.0730    0.6117
  3451.5217    3452.5110  0.0847    0.4124
  3451.7139    3452.7030  0.0936    0.5823
  3452.7397    3453.7290  0.1281    0.5831
  3453.0037    3453.9930  0.0664    0.3845
  3453.2395    3454.2290  0.0859    0.5882
  3454.4653    3455.4550  0.1575    0.3894
  3454.7275    3455.7170  0.0703    0.6239
  3454.9609    3455.9510  0.0882    0.4137
  3455.2227    3456.2130  0.0961    0.4900
  3456.0886    3457.0790  0.0424    0.4243
  3456.9675    3457.9580  0.0852    0.3218
  3457.1738    3458.1640  0.1385    0.5542
  3457.4080    3458.3980  0.0892    0.4457
  3457.6812    3458.6720  0.0804    0.6245
  3460.1028    3461.0940  0.2176    0.4369
  3460.3381    3461.3290  0.1177    0.3356
  3460.6125    3461.6040  0.0872    0.5217
  3464.0422    3465.0340  0.0963    0.4554
  3477.9597    3478.9550  0.0696    0.4251
  3478.2671    3479.2630  0.1113    0.4093
  3478.7383    3479.7340  0.0902    0.5215
  3479.0293    3480.0250  0.1433    0.3563
  3479.3569    3480.3530  0.1109    0.4658
  3479.6067    3480.6030  0.0998    0.5429
  3479.9597    3480.9560  0.0437    0.5344
  3480.1570    3481.1530  0.1028    0.4848
  3480.4023    3481.3990  0.0758    0.4183
  3480.5830    3481.5790  0.0796    0.3654
  3480.7522    3481.7490  0.0894    0.4629
  3481.0100    3482.0060  0.1103    0.5099
  3481.1401    3482.1370  0.1231    0.6560
  3481.3738    3482.3700  0.1055    0.3922
  3482.2146    3483.2110  0.1034    0.5050
  3482.4629    3483.4600  0.1485    0.7425
  3482.7100    3483.7070  0.1353    0.4518
  3482.9104    3483.9070  0.0864    0.7000
  3483.4875    3484.4850  0.0898    0.4955
  3483.7803    3484.7770  0.1044    0.5045
  3484.7002    3485.6980  0.0796    0.7743
  3484.9419    3485.9390  0.0946    0.7304
  3485.1995    3486.1970  0.1028    1.0831
  3486.5403    3487.5380  0.0596    0.5124
  3486.8477    3487.8460  0.0968    0.5462
  3487.5161    3488.5140  0.1070    0.6044
  3487.7505    3488.7490  0.0808    0.5256
  3488.0151    3489.0130  0.0987    0.7972
  3488.2932    3489.2920  0.1269    0.4269
  3488.6162    3489.6150  0.0857    0.5490
  3490.5796    3491.5790  0.0749    0.6454
  3491.3826    3492.3820  0.1151    0.6303
  3492.6760    3493.6750  0.0715    0.5495
  3494.9500    3495.9500  0.1892    0.6429
  3497.3875    3498.3880  0.1069    0.4456
  3499.7742    3500.7750  0.0664    0.5312
  3502.3574    3503.3590  0.0671    0.4328
  3502.7620    3503.7640  0.0802    0.4612
  3504.8059    3505.8080  0.0740    0.3661
  3505.3176    3506.3200  0.0989    0.2802
  3505.7222    3506.7250  0.0924    0.4121
  3508.9167    3509.9200  0.0606    0.4595
  3509.8506    3510.8540  0.0785    0.4153
  3512.1223    3513.1270  0.0997    0.4126
  3512.9646    3513.9690  0.0469    0.3170
  3517.2117    3518.2170  0.0575    0.6437
  3520.8459    3521.8530  0.0428    0.4469
  3540.8975    3541.9090  0.0743    0.4470
  3542.4226    3543.4350  0.0782    0.6872
  3542.8613    3543.8740  0.0858    0.5629
  3544.2063    3545.2190  0.0876    0.7279
  3544.6099    3545.6230  0.0963    0.6176
  3545.1450    3546.1580  0.0577    0.6185
  3545.5459    3546.5590  0.0479    0.4382
  3546.2122    3547.2250  0.0904    0.6672
  3546.6741    3547.6870  0.0876    0.7796
  3547.2131    3548.2270  0.0756    0.4008
  3547.9438    3548.9570  0.1099    0.6262
  3548.8411    3549.8550  0.0570    0.4230
  3549.3625    3550.3770  0.1180    0.4912
  3550.3833    3551.3980  0.0947    0.5313
  3550.9326    3551.9470  0.1129    0.5527
  3552.6755    3553.6900  0.0697    0.5679
  3553.1797    3554.1950  0.0632    0.4789
  3553.9717    3554.9870  0.1089    0.6065
  3554.3740    3555.3890  0.0650    0.4800
  3554.5872    3555.6030  0.1079    0.5168
  3554.7742    3555.7900  0.0625    0.3943
  3555.1289    3556.1440  0.1185    0.2724
  3555.5847    3556.6000  0.1062    0.5059
  3555.8848    3556.9010  0.0872    0.3755
  3556.0823    3557.0980  0.1010    0.7400
  3556.6646    3557.6810  0.0881    0.4655
  3556.8840    3557.9000  0.1068    0.2481
  3557.8420    3558.8580  0.0840    0.6167
  3558.1123    3559.1290  0.0745    0.5060
  3558.3586    3559.3750  0.1162    0.5874
  3558.9050    3559.9210  0.0663    0.4479
  3560.6448    3561.6620  0.1033    0.6511
  3560.8909    3561.9080  0.0748    0.3544
  3561.1560    3562.1730  0.0984    0.5898
  3561.3008    3562.3180  0.0844    0.4763
  3561.5713    3562.5880  0.0883    0.3093
  3563.1582    3564.1760  0.0695    0.3615
  3563.9211    3564.9390  0.3538    0.4940
  3564.2039    3565.2220  0.1598    0.4365
  3564.4971    3565.5150  0.0806    0.4654
  3566.5933    3567.6120  0.0999    0.3155
  3567.8232    3568.8420  0.1328    0.3978
  3567.9158    3568.9350  0.0616    0.3282
  3568.3718    3569.3910  0.1078    0.4059
  3577.7803    3578.8020  0.0880    0.3339
  3582.7427    3583.7650  0.0934    0.3265
  3615.3508    3616.3820  0.0813    0.3989
  3615.6157    3616.6470  0.0807    0.4255
  3616.0425    3617.0740  0.0892    0.5282
  3616.6240    3617.6550  0.0702    0.3827
  3617.0732    3618.1050  0.0843    0.3090
  3617.3591    3618.3910  0.0887    0.4226
  3617.8555    3618.8870  0.1087    0.3312
  3618.2593    3619.2910  0.0872    0.4458
  3618.7988    3619.8310  0.1038    0.2993
  3619.3157    3620.3480  0.0910    0.3782
  3619.8936    3620.9260  0.0940    0.3677
  3620.5349    3621.5670  0.0803    0.4015
  3621.1628    3622.1950  0.0734    0.4972
  3621.9097    3622.9420  0.0750    0.3736
  3622.5818    3623.6150  0.0659    0.4852
  3623.4382    3624.4710  0.0629    0.3678
  3624.1643    3625.1980  0.0832    0.4631
  3625.1311    3626.1650  0.0044    0.3228
  3625.9011    3626.9350  0.0727    0.3726
  3627.8064    3628.8410  0.1052    0.4516
  3629.0110    3630.0460  0.0782    0.4291
  3629.8596    3630.8940  0.1679    0.4217
  3632.0857    3633.1210  0.0973    0.4814
  3632.3052    3633.3410  0.0765    0.4401
  3633.3684    3634.4040  0.0682    0.4058
  3633.9368    3634.9730  0.0992    0.4379
  3634.4705    3635.5060  0.0926    0.4184
  3635.5181    3636.5540  0.1003    0.4742
  3636.0593    3637.0960  0.0837    0.5928
  3637.0107    3638.0470  0.0935    0.2889
  3638.1738    3639.2110  0.1120    0.3346
  3638.4165    3639.4540  0.0645    0.2559
  3638.7017    3639.7390  0.0929    0.5193
  3639.7197    3640.7570  0.0738    0.3056
  3640.5081    3641.5460  0.0754    0.3043
  3641.2710    3642.3090  0.1048    0.3090
  3641.5320    3642.5700  0.0867    0.4023
  3641.8528    3642.8910  0.0870    0.3496
  3642.5894    3643.6270  0.0758    0.3779
  3643.2754    3644.3140  0.1190    0.3506
  3645.4976    3646.5360  0.0688    0.2627
  3645.6328    3646.6720  0.0920    0.3234
  3649.0522    3650.0920  0.0629    0.3104
  3649.3340    3650.3740  0.0756    0.2738
  3649.6709    3650.7110  0.0646    0.2875
  3664.7971    3665.8410  0.0990    0.2630
  3668.0999    3669.1450  0.0701    0.2368
  3669.8137    3670.8590  0.0939    0.3233
  3673.4053    3674.4510  0.0664    0.2714
  3676.0754    3677.1220  0.1276    0.2555
  3697.8506    3698.9030  0.0731    0.3367
  3698.1045    3699.1570  0.0722    0.4139
  3698.4983    3699.5510  0.1235    0.3661
  3699.0808    3700.1330  0.0580    0.3610
  3699.6147    3700.6680  0.1400    0.2569
  3699.8123    3700.8650  0.0835    0.3280
  3700.4097    3701.4630  0.1004    0.2977
  3700.6895    3701.7430  0.0833    0.3361
  3701.3677    3702.4210  0.0832    0.3587
  3701.7278    3702.7810  0.1019    0.3605
  3702.4580    3703.5120  0.0777    0.3668
  3702.9326    3703.9860  0.0701    0.3059
  3703.7253    3704.7790  0.0983    0.3384
  3704.2844    3705.3380  0.1217    0.2902
  3705.1528    3706.2070  0.0871    0.3685
  3705.8101    3706.8650  0.0556    0.2612
  3706.7273    3707.7820  0.0870    0.3510
  3707.4951    3708.5500  0.0992    0.2616
  3708.4702    3709.5250  0.0945    0.3449
  3709.3374    3710.3930  0.0783    0.2477
  3710.3804    3711.4360  0.0710    0.3882
  3711.1672    3712.2230  0.0807    0.2051
  3711.3474    3712.4030  0.0822    0.2103
  3714.6794    3715.7360  0.1021    0.3156
  3717.0417    3718.0990  0.0832    0.2776
  3719.6013    3720.6590  0.0659    0.2612
  3722.3274    3723.3860  0.0893    0.3423
  3728.2622    3729.3220  0.1088    0.2868
  3731.3594    3732.4200  0.1061    0.2952
  3731.6438    3732.7050  0.0977    0.3017
  3733.1506    3734.2120  0.0764    0.3855
  3733.5808    3734.6420  0.0758    0.3380
  3734.0183    3735.0800  0.1024    0.2518
  3734.2122    3735.2740  0.2313    0.2496
  3734.5364    3735.5980  0.1122    0.3314
  3734.8113    3735.8730  0.0921    0.3705
  3735.0513    3736.1130  0.0735    0.2415
  3735.7109    3736.7730  0.0726    0.2613
  3736.3674    3737.4300  0.0637    0.3602
  3736.9844    3738.0470  0.1557    0.3439
  3737.6233    3738.6860  0.1016    0.2691
  3737.8049    3738.8680  0.1441    0.2543
  3738.0879    3739.1510  0.0856    0.2728
  3738.5237    3739.5870  0.1538    0.3374
  3738.8252    3739.8880  0.1036    0.2150
  3739.0984    3740.1610  0.1942    0.3824
  3739.3103    3740.3730  0.1177    0.3926
  3739.6133    3740.6760  0.1874    0.4298
  3739.7771    3740.8400  0.0863    0.3508
  3739.8865    3740.9500  0.0484    0.1890
  3741.0708    3742.1340  0.1128    0.4576
  3741.6289    3742.6930  0.0754    0.5167
  3743.5273    3744.5920  0.1785    0.3530
  3743.7969    3744.8610  0.1076    0.2802
  3744.0588    3745.1230  0.1126    0.5272
  3746.5010    3747.5660  0.1255    0.4925
  3746.7795    3747.8450  0.0883    0.3104
  3747.0688    3748.1340  0.0747    0.5188
  3750.3472    3751.4130  0.1356    0.2891
  3750.6619    3751.7280  0.0683    0.3598
  3754.1956    3755.2630  0.0725    0.3199
  3754.4954    3755.5620  0.0806    0.2555
  3754.8347    3755.9020  0.1005    0.4822
  3757.7944    3758.8620  0.0827    0.1921
  3758.2217    3759.2900  0.0935    0.1663
  3758.9431    3760.0110  0.0899    0.2997
  3759.0933    3760.1620  0.0497    0.1702
  3759.2332    3760.3010  0.0916    0.2178
  3759.5779    3760.6460  0.0825    0.2383
